## Resonance frequencies (MHz)
7.070570E-01
#7.874550E-01
9.041588E-01
1.181134E+00
#1.255733E+00
1.327667E+00
1.385561E+00
1.415002E+00
1.536414E+00
1.569063E+00
1.602613E+00
#1.614336E+00
1.742463E+00
1.794844E+00
1.823449E+00
#1.852206E+00
1.864722E+00
1.929256E+00
1.990122E+00
1.998809E+00
2.061152E+00
2.092563E+00
2.202349E+00
2.227188E+00
2.254823E+00
2.258345E+00
2.274067E+00
2.279849E+00
2.290465E+00
2.313332E+00
2.345652E+00
2.375012E+00
2.396698E+00
2.463913E+00
2.494023E+00
2.525277E+00
2.536392E+00
2.561253E+00
2.595722E+00
2.620212E+00
2.636014E+00
2.670606E+00
2.672942E+00
2.724568E+00
2.743783E+00
2.771409E+00
2.775954E+00
2.792486E+00
2.830200E+00
2.845523E+00
2.847945E+00
2.884602E+00
2.941117E+00
2.948715E+00
2.966243E+00
3.032652E+00
3.039152E+00
3.060649E+00
3.071732E+00
3.100045E+00
3.166005E+00
3.176972E+00
3.192591E+00
3.215745E+00
3.243392E+00
3.262662E+00
3.270295E+00
3.281965E+00
3.298636E+00
3.299565E+00
3.312805E+00
3.328965E+00
3.385141E+00
3.389803E+00
3.503540E+00
3.534722E+00
3.550761E+00
3.559931E+00
3.586375E+00
3.604214E+00
3.627936E+00
3.642556E+00
3.649801E+00
3.670005E+00
3.673389E+00
3.693989E+00
